File: assets/data/P12/uvvis/abscoeff-H2O+EtOH.dat
260.3 186.082 242.242 1.02484e-08 2.30727e-22 6.00973e-08 3.19328e-21 5.11506e-159 242.242 -56.1604
266.39 1779.61 1166.67 1.06613e-06 3.79718e-20 2.00605e-07 2.11236e-20 3.56487e-154 1166.67 612.941
272.48 5096.32 4028.64 7.09497e-05 4.90373e-18 6.49174e-07 1.35384e-19 2.09964e-149 4028.64 1067.68
278.57 9595.96 9974.27 0.0030205 4.9693e-16 2.03662e-06 8.40697e-19 1.04509e-144 9974.27 -378.308
284.65 16195.6 17694 0.0818455 3.92404e-14 6.18312e-06 5.04327e-18 4.32057e-140 17694 -1498.44
290.73 23040.7 22529.7 1.42081 2.43344e-12 1.82004e-05 2.93157e-17 1.51034e-135 22531.1 509.625
296.8 22286.2 20599.4 15.7448 1.17779e-10 5.18549e-05 1.64657e-16 4.39001e-131 20615.2 1671.04
302.87 13364 13533.6 111.943 4.4803e-09 0.000143258 8.96231e-16 1.07955e-126 13645.6 -281.534
308.94 6235.72 6388.99 510.645 1.3395e-07 0.000383765 4.72738e-15 2.246e-122 6899.64 -663.916
315 3902.18 2171.71 1492.41 3.13182e-06 0.000995313 2.41004e-14 3.89071e-118 3664.13 238.059
321.06 3385.94 531.012 2802.54 5.75957e-05 0.00250333 1.19079e-13 5.70526e-114 3333.56 52.3804
327.11 3424.39 93.6919 3381.68 0.000829646 0.00609691 5.6877e-13 6.97355e-110 3475.38 -50.9894
333.16 2708.69 11.9043 2625.67 0.00940757 0.0144016 2.63323e-12 7.21934e-106 2637.6 71.0919
339.2 1273.76 1.09382 1313.81 0.0836871 0.0329482 1.17876e-11 6.23662e-102 1315.02 -41.2589
345.25 525.682 0.072109 422.678 0.588273 0.0732095 5.12744e-11 4.6328e-98 423.412 102.27
351.28 242.071 0.00345979 88.0221 3.23815 0.157373 2.1517e-10 2.83247e-94 91.4211 150.649
357.31 102.275 0.000119799 11.8295 14.0534 0.328161 8.75392e-10 1.46834e-90 26.2112 76.0636
363.34 114.561 2.99368e-06 1.02596 48.0879 0.663801 3.45273e-09 6.45406e-87 49.7776 64.7831
369.37 160.512 5.39884e-08 0.0574228 129.735 1.30252 1.32027e-08 2.40536e-83 131.095 29.4175
375.39 347.203 7.07923e-10 0.00208632 275.669 2.4767 4.88392e-08 7.50108e-80 278.148 69.0554
381.4 415.06 6.76027e-12 4.93129e-05 461.893 4.56425 1.74803e-07 1.95894e-76 466.458 -51.3976
387.41 572.945 4.66902e-14 7.54383e-07 611.149 8.16109 6.06675e-07 4.34246e-73 619.31 -46.3648
393.42 652.07 2.33223e-16 7.46919e-09 638.563 14.1582 2.04171e-06 8.17084e-70 652.722 -0.651032
399.42 637.78 8.50705e-19 4.8285e-11 527.153 23.8115 6.6499e-06 1.28927e-66 550.964 86.8161
405.42 388.135 2.24667e-21 2.02316e-13 343.923 38.8589 2.10044e-05 1.72771e-63 382.782 5.35322
411.42 273.211 4.29586e-24 5.49448e-16 177.329 61.5346 6.43394e-05 1.96632e-60 238.863 34.3472
417.41 78.3872 6.01442e-27 9.77798e-19 72.381 94.4875 0.000190783 1.8792e-57 166.869 -88.4815
423.39 127.636 6.17547e-30 1.14272e-21 23.4157 140.709 0.00054773 1.50933e-54 164.125 -36.4893
429.37 170.403 4.60078e-33 8.6808e-25 5.99601 203.367 0.0015253 1.03067e-51 209.364 -38.9611
435.35 227.94 2.48701e-36 4.28661e-28 1.21532 285.267 0.00412006 5.98384e-49 286.486 -58.5468
441.32 312.865 9.88598e-40 1.39508e-31 0.195617 388.171 0.0107777 2.92362e-46 388.377 -75.5119
447.29 432.337 2.85439e-43 2.95556e-35 0.0249421 512.685 0.0273498 1.21513e-43 512.737 -80.4006
453.25 510.031 6.07343e-47 4.13867e-39 0.00252944 656.999 0.0672271 4.25477e-41 657.069 -147.038
459.21 734.764 9.39658e-51 3.77801e-43 0.00020336 817.295 0.160319 1.26802e-38 817.455 -82.6913
465.17 844.218 1.05711e-54 2.24827e-47 1.29616e-05 986.943 0.370915 3.21639e-36 987.314 -143.096
471.12 1021.57 8.7874e-59 8.87504e-52 6.58359e-07 1156.64 0.83145 6.88259e-34 1157.48 -135.907
477.06 1151.92 5.4061e-63 2.32898e-56 2.66799e-08 1315.73 1.80608 1.24344e-31 1317.54 -165.614
483 1340.95 2.42354e-67 3.99565e-61 8.58481e-10 1453.18 3.80692 1.91409e-29 1456.99 -116.038
488.94 1489.16 7.91696e-72 4.48162e-66 2.19333e-11 1558.33 7.78664 2.51052e-27 1566.12 -76.9576
494.87 1614.96 1.91914e-76 3.35358e-71 4.4796e-13 1622.43 15.4374 2.78383e-25 1637.87 -22.9138
500.8 1654.72 3.39361e-81 1.64297e-76 7.27004e-15 1640.22 29.7016 2.63159e-23 1669.92 -15.2018
506.72 1647.75 4.46252e-86 5.38541e-82 9.44644e-17 1610.24 55.4016 2.10542e-21 1665.64 -17.8936
512.64 1631.67 4.28515e-91 1.15737e-87 9.76113e-19 1535.16 100.298 1.43678e-19 1635.45 -3.78538
518.55 1630.45 3.06647e-96 1.66892e-93 8.08794e-21 1421.52 176.068 8.30712e-18 1597.59 32.8574
524.46 1698.71 1.60413e-101 1.58009e-99 5.33349e-23 1278.41 300.015 4.09899e-16 1578.42 120.291
530.37 1874.05 6.13432e-107 9.82235e-106 2.79912e-25 1116.61 496.219 1.72611e-14 1612.83 261.221
536.27 2244.25 1.7528e-112 4.1115e-112 1.18025e-27 947.498 796.043 6.1667e-13 1743.54 500.708
542.16 2624.62 3.74824e-118 1.16135e-118 4.00293e-30 781.208 1238.79 1.87058e-11 2020 604.619
548.05 3324.02 5.87177e-124 2.15995e-125 1.08215e-32 625.686 1871.62 4.84766e-10 2497.31 826.715
553.94 4069.3 6.73841e-130 2.64513e-132 2.33185e-35 486.796 2745.32 1.07329e-08 3232.12 837.175
559.82 4989.58 5.80258e-136 2.19366e-139 4.04947e-38 368.091 3907.3 2.02034e-07 4275.39 714.182
565.7 6091.43 3.66429e-142 1.19957e-146 5.60965e-41 270.4 5399.59 3.25083e-06 5669.99 421.438
571.57 7283.92 1.74001e-148 4.45483e-154 6.27228e-44 193.091 7241.68 4.45192e-05 7434.78 -150.855
577.44 8787.75 6.06562e-155 1.09242e-161 5.59871e-47 133.969 9431.1 0.000521429 9565.07 -777.322
583.3 10636.2 1.59333e-161 1.82441e-169 4.03989e-50 90.3722 11922.5 0.00520343 12012.8 -1376.66
589.16 13165 3.07579e-168 2.01474e-177 2.32893e-53 59.2371 14637.2 0.0444335 14696.5 -1531.44
595.01 16250.3 4.4836e-175 1.51957e-185 1.087e-56 37.7596 17446.9 0.323623 17485 -1234.66
600.86 19754.3 4.8081e-182 7.58922e-194 4.05638e-60 23.3901 20198 2.01802 20223.4 -469.123
606.7 23014.9 3.90168e-189 2.59598e-202 1.22743e-63 14.0927 22706.7 10.7444 22731.5 283.35
612.54 25752.7 2.33164e-196 5.88836e-211 2.97185e-67 8.25223 24795.5 49.003 24852.8 899.933
618.37 27209.7 1.05661e-203 9.17353e-220 5.84343e-71 4.70102 26298.7 191.027 26494.4 715.271
624.2 27952.6 3.5298e-211 9.49024e-229 9.20048e-75 2.60297 27096.5 638.241 27737.3 215.267
630.02 29433.3 8.96062e-219 6.76218e-238 1.17822e-78 1.40241 27121.8 1824.59 28947.8 485.531
635.84 31977.9 1.67867e-226 3.20409e-247 1.20914e-82 0.734475 26374.5 4472.91 30848.2 1129.69
641.66 36201.3 2.32078e-234 1.00956e-256 9.94394e-87 0.373921 24917.9 9402.9 34321.2 1880.07
647.47 42113.4 2.44447e-242 2.19862e-266 6.66409e-91 0.185274 22875.7 16935.5 39811.3 2302.05
653.27 46137.7 1.96471e-250 3.31643e-276 3.64348e-95 0.0893612 20409.7 26154.1 46563.8 -426.149
659.07 49978.9 1.16777e-258 3.33592e-286 1.59877e-99 0.0419049 17694.8 34672.6 52367.4 -2388.44
664.86 52240.7 5.30744e-267 2.33065e-296 5.73202e-104 0.0191321 14912.1 39454.5 54366.7 -2125.97
670.65 50123.4 1.7857e-275 1.08735e-306 1.65064e-108 0.00849349 12213 38560.3 50773.3 -649.95
676.44 45189.5 4.44763e-284 3.38739e-317 3.81784e-113 0.00366635 9720.67 32368 42088.7 3100.84
682.22 34072.1 8.49264e-293 0 7.22867e-118 0.00154123 7522.5 23352.2 30874.7 3197.43
687.99 20237.8 1.24517e-301 0 1.12167e-122 0.000631034 5660.9 14491.5 20152.4 85.3305
693.76 10993.5 1.35428e-310 0 1.40008e-127 0.000251273 4140.79 7731.97 11872.8 -879.228
699.52 5800.56 1.12281e-319 0 1.43437e-132 9.74704e-05 2945.94 3552.2 6498.14 -697.585
705.28 3036.61 0 0 1.18298e-137 3.67748e-05 2037.43 1403.85 3441.28 -404.669
711.04 1621.37 0 0 7.85409e-143 1.34952e-05 1369.81 477.263 1847.07 -225.7
716.79 886.071 0 0 4.28801e-148 4.82553e-06 895.952 139.892 1035.84 -149.774
722.53 569.481 0 0 1.92729e-153 1.68156e-06 570.194 35.381 605.575 -36.0944
728.27 333.616 0 0 6.98385e-159 5.70051e-07 352.829 7.70575 360.535 -26.9185
734 266.951 0 0 2.08653e-164 1.88365e-07 212.473 1.44961 213.922 53.0281
739.73 201.124 0 0 5.02968e-170 6.05566e-08 124.419 0.234953 124.654 76.4701
745.46 210.68 0 0 9.78226e-176 1.89408e-08 70.8465 0.03281 70.8793 139.801
751.17 176.493 0 0 1.60896e-181 5.78811e-09 39.3107 0.00397786 39.3147 137.179
756.89 121.895 0 0 2.0879e-187 1.71752e-09 21.1911 0.000414251 21.1915 100.704
762.6 174.466 0 0 2.24141e-193 4.96978e-10 11.1221 3.73496e-05 11.1221 163.344
768.3 178.082 0 0 1.99279e-199 1.40251e-10 5.6842 2.91777e-06 5.6842 172.398
774 95.9468 0 0 1.43272e-205 3.8519e-11 2.82569 1.96692e-07 2.82569 93.1211
779.69 192.912 0 0 8.54354e-212 1.03196e-11 1.3681 1.15005e-08 1.3681 191.544
785.37 217.708 0 0 4.23036e-218 2.69727e-12 0.645223 5.83683e-10 0.645223 217.063
791.06 155.888 0 0 1.65264e-224 6.84566e-13 0.295633 2.54454e-11 0.295633 155.593
796.73 219.083 0 0 5.50896e-231 1.69943e-13 0.132149 9.69069e-13 0.132149 218.951
802.4 158.98 0 0 1.48829e-237 4.1069e-14 0.0574744 3.18965e-14 0.0574744 158.923
808.07 163.601 0 0 3.25859e-244 9.66163e-15 0.0243211 9.07346e-16 0.0243211 163.576
813.73 177.718 0 0 5.94409e-251 2.21845e-15 0.0100295 2.24564e-17 0.0100295 177.708
819.39 241.965 0 0 8.79405e-258 4.95925e-16 0.00402456 4.80589e-19 0.00402456 241.961
825.04 319.203 0 0 1.08555e-264 1.08225e-16 0.00157409 8.95757e-21 0.00157409 319.201
830.68 237.462 0 0 1.1193e-271 2.30593e-17 0.000600172 1.4552e-22 0.000600172 237.462
836.32 211.71 0 0 9.37414e-279 4.78424e-18 0.000222713 2.04629e-24 0.000222713 211.709
841.95 299.803 0 0 6.56742e-286 9.69324e-19 8.05815e-05 2.51058e-26 8.05815e-05 299.803
847.58 318.374 0 0 3.73997e-293 1.91255e-19 2.83786e-05 2.66756e-28 2.83786e-05 318.374
853.2 240.076 0 0 1.78426e-300 3.68578e-20 9.74647e-06 2.47548e-30 9.74647e-06 240.076
858.82 337.8 0 0 6.92431e-308 6.91791e-21 3.25846e-06 1.99049e-32 3.25846e-06 337.8
864.43 371.298 0 0 2.2545e-315 1.26845e-21 1.06258e-06 1.39929e-34 1.06258e-06 371.298
870.04 231.271 0 0 0 2.26538e-22 3.37336e-07 8.52773e-37 3.37336e-07 231.271
875.64 347.264 0 0 0 3.95316e-23 1.04479e-07 4.5483e-39 1.04479e-07 347.264
881.23 362.099 0 0 0 6.74128e-24 3.1574e-08 2.12465e-41 3.1574e-08 362.099
886.82 251.719 0 0 0 1.11993e-24 9.29094e-09 8.61277e-44 9.29094e-09 251.719
892.41 218.381 0 0 0 1.81256e-25 2.66209e-09 3.02982e-46 2.66209e-09 218.381
897.99 215.119 0 0 0 2.86742e-26 7.44423e-10 9.34679e-49 7.44423e-10 215.119
899.7 256.456 0 0 0 1.62114e-26 5.01096e-10 1.54509e-49 5.01096e-10 256.456