File: assets/data/P12/uvvis/abscoeff-H2O.dat
260.3 148.615 446.612 2.2674e-08 5.16976e-22 6.60435e-08 9.41067e-16 1.4944e-204 0 446.612 -297.996
267.33 3062.27 2320.1 4.36062e-06 1.67592e-19 2.66505e-07 5.1976e-15 2.15099e-197 0 2320.1 742.172
274.36 8595.37 7897.54 0.00046131 3.95714e-17 1.03169e-06 2.77735e-14 2.32102e-190 0 7897.54 697.831
281.38 16511.5 17600.4 0.0267016 6.75729e-15 3.82442e-06 1.43252e-13 1.83589e-183 4.81931e-307 17600.4 -1088.93
288.39 26100 25726.5 0.847783 8.35629e-13 1.35778e-05 7.13299e-13 1.06581e-176 7.04216e-294 25727.3 372.648
295.4 25825.5 24699.7 14.857 7.54017e-11 4.62555e-05 3.43693e-12 4.64608e-170 5.33293e-281 24714.5 1110.99
302.41 15418.1 15576 143.708 4.9645e-09 0.000151206 1.60249e-11 1.5208e-163 2.09298e-268 15719.7 -301.617
309.4 6826.35 6471.79 764.22 2.35991e-07 0.000472776 7.1995e-11 3.58576e-157 3.93e-256 7236.01 -409.657
316.4 4397.77 1766.65 2253.28 8.24001e-06 0.00142097 3.13705e-10 6.48972e-151 3.99149e-244 4019.93 377.837
323.39 3868.1 318.015 3672.2 0.000209202 0.00409254 1.32015e-09 8.65227e-145 2.02623e-232 3990.22 -122.122
330.37 3334.84 37.8174 3316.31 0.00386717 0.0112968 5.36629e-09 8.50791e-139 5.15547e-221 3354.15 -19.3042
337.35 1634.73 2.96448 1661.46 0.0523019 0.0299324 2.11141e-08 6.29732e-133 6.83638e-210 1664.5 -29.7684
344.32 435.59 0.153883 462.813 0.515951 0.0760298 8.026e-08 3.44339e-127 4.56073e-199 463.559 -27.9691
351.28 108.078 0.00529899 71.8628 3.71749 0.185165 2.9479e-07 1.39265e-121 1.53499e-188 75.7708 32.3075
358.24 86.0775 0.000120572 6.21114 19.6319 0.432973 1.04823e-06 4.24661e-116 2.70256e-178 26.2762 59.8014
365.2 126.01 1.81278e-06 0.298818 75.9887 0.972049 3.60854e-06 9.76315e-111 2.48909e-168 77.2595 48.7509
372.15 240.668 1.81342e-08 0.00804734 215.305 2.09303 1.20059e-05 1.66358e-105 1.16197e-158 217.406 23.2619
379.09 489.666 1.20916e-10 0.000121619 447.155 4.32313 3.86108e-05 2.10346e-100 2.75704e-149 451.478 38.1873
386.03 623.343 5.34007e-13 1.02655e-06 681.883 8.57528 0.000120236 2.0085e-95 3.43482e-140 690.458 -67.115
392.96 776.853 1.57569e-15 4.87891e-09 763.544 16.3206 0.000361982 1.42544e-90 2.18311e-131 779.865 -3.01163
399.89 743.608 3.08313e-18 1.29724e-11 628.336 29.8333 0.00105534 7.64588e-86 7.299e-123 658.17 85.4376
406.81 419.285 4.0402e-21 1.94867e-14 380.36 52.3365 0.00297515 3.05313e-81 1.2496e-114 432.699 -13.4145
413.72 228.8 3.55202e-24 1.65793e-17 169.598 88.1296 0.00811142 9.08715e-77 1.09852e-106 257.736 -28.9359
420.63 113.971 2.07574e-27 7.91776e-21 55.6738 142.567 0.0214198 2.04745e-72 5.0988e-99 198.262 -84.2905
427.53 159.82 8.1575e-31 2.14882e-24 13.4857 221.426 0.0547125 3.44399e-68 1.21972e-91 234.967 -75.1468
434.43 289.026 2.13343e-34 3.27896e-28 2.40706 330.423 0.135372 4.38898e-64 1.54341e-84 332.965 -43.9394
441.32 355.321 3.7611e-38 2.85286e-32 0.317585 473.506 0.324043 4.18244e-60 1.01027e-77 474.148 -118.827
448.21 532.754 4.41774e-42 1.39793e-36 0.0309035 652.021 0.751429 3.02201e-56 3.50445e-71 652.803 -120.05
455.09 768.028 3.50609e-46 3.91878e-41 0.00222681 862.409 1.68611 1.6354e-52 6.31161e-65 864.097 -96.069
461.96 919.586 1.88343e-50 6.30024e-46 0.000118977 1095.86 3.66145 6.63645e-49 5.91828e-59 1099.52 -179.938
468.83 1157.6 6.75691e-55 5.7236e-51 4.69662e-06 1338.38 7.70396 2.04525e-45 2.95174e-53 1346.08 -188.484
475.69 1462.99 1.64464e-59 2.99204e-56 1.37713e-07 1570.7 15.6901 4.73409e-42 7.69295e-48 1586.39 -123.398
482.55 1689.12 2.67656e-64 8.85303e-62 2.98599e-09 1771.9 30.9648 8.32859e-39 1.0684e-42 1802.86 -113.74
489.4 1920.65 2.96228e-69 1.51232e-67 4.81764e-11 1921.21 59.162 1.10225e-35 7.7821e-38 1980.37 -59.7264
496.24 2086.9 2.23348e-74 1.49521e-73 5.79145e-13 2002.53 109.448 1.09872e-32 2.98113e-33 2111.97 -25.0706
503.08 2253.74 1.1286e-79 8.3951e-80 5.15734e-15 2006.83 196.238 8.33742e-30 6.10777e-29 2203.07 50.6676
509.91 2264.77 3.89422e-85 2.73712e-86 3.42793e-17 1933.8 340.746 4.7727e-27 6.6053e-25 2274.54 -9.77033
516.73 2392.78 9.19151e-91 5.19494e-93 1.70286e-19 1792.06 573.069 2.0635e-24 3.78096e-21 2365.13 27.6507
523.55 2699.2 1.45736e-96 5.61783e-100 6.27727e-22 1597.07 934.272 6.80258e-22 1.16175e-17 2531.34 167.859
530.37 3194.73 1.55225e-102 3.46145e-107 1.71715e-24 1368.75 1476.49 1.70992e-19 1.91615e-14 2845.24 349.496
537.17 3865.03 1.15837e-108 1.27899e-114 3.55123e-27 1128.82 2259.2 3.22838e-17 1.66457e-11 3388.02 477.013
543.98 4946.01 5.69597e-115 2.63112e-122 5.40657e-30 895.151 3353.44 4.68818e-15 7.8576e-09 4248.59 697.423
550.77 6352.82 1.96922e-121 3.26196e-130 6.23927e-33 683.309 4820.71 5.12586e-13 1.96429e-06 5504.02 848.793
557.56 7948.18 4.58937e-128 2.3156e-138 5.3571e-36 501.785 6719.57 4.28345e-11 0.00026503 7221.36 726.821
564.34 9739.13 7.38056e-135 9.68788e-147 3.46025e-39 354.675 9078.17 2.71965e-09 0.0191874 9432.86 306.261
571.12 11747.8 8.01052e-142 2.32462e-155 1.66436e-42 241.198 11893.3 1.32081e-07 0.751104 12135.3 -387.438
577.89 14476.7 6.01336e-149 3.29824e-164 6.03289e-46 157.916 15104.7 4.88141e-06 15.8339 15278.5 -801.81
584.65 18314 3.12761e-156 2.77387e-173 1.65009e-49 99.5563 18598.9 0.000137449 180.245 18878.7 -564.677
591.41 23546.6 1.1004e-163 1.34236e-182 3.3667e-53 60.4 22212.1 0.00296507 1113.46 23385.9 160.669
598.16 29987.9 2.68864e-171 3.86318e-192 5.19229e-57 35.2932 25723.7 0.0488095 3727.7 29486.7 501.238
604.9 35273.7 4.56994e-179 6.62794e-202 6.06087e-61 19.8657 28892 0.613851 6781.72 35694.2 -420.536
611.64 38346.5 5.26663e-187 6.56463e-212 5.28662e-65 10.7632 31479.6 5.92379 6719.6 38215.9 130.603
618.37 37442.6 4.23207e-195 3.8888e-222 3.49618e-69 5.61874 33270.5 43.7431 3631.17 36951 491.578
625.1 35322.4 2.30844e-203 1.33207e-232 1.72923e-73 2.82364 34114.1 248.049 1070.62 35435.6 -113.238
631.81 34632.7 9.06012e-212 2.84121e-243 6.59646e-78 1.36905 33937.5 1075.86 173.325 35188.1 -555.369
638.53 36523.2 2.3485e-220 3.38506e-254 1.85565e-82 0.638401 32757.9 3594.73 15.3029 36368.6 154.568
645.23 41615 4.39537e-229 2.52355e-265 4.03649e-87 0.287311 30686 9208.46 0.745868 39895.5 1719.44
651.93 47357.4 5.60327e-238 1.09315e-276 6.58381e-92 0.124518 27895 18157.1 0.0199424 46052.3 1305.16
658.62 51122.5 5.02085e-247 2.86457e-288 8.19107e-97 0.0520373 24613 27546.1 0.000294479 52159.2 -1036.64
665.31 50916.5 3.06798e-256 4.36881e-300 7.64791e-102 0.0209444 21076.8 32192.2 2.38966e-06 53269 -2352.51
671.99 46607.5 1.32072e-265 4.04374e-312 5.45607e-107 0.00813051 17521.6 28991.5 1.07481e-08 46513.2 94.2978
678.66 36749.6 4.01236e-275 0 2.97791e-112 0.00304466 14142.7 20143.3 2.68661e-11 34286 2463.58
685.33 22123.4 8.33143e-285 0 1.22187e-117 0.00109832 11080.8 10798 3.70372e-14 21878.8 244.682
691.99 12174.1 1.22366e-294 0 3.84218e-123 0.000382286 8430.86 4472.71 2.84772e-17 12903.6 -729.471
698.64 6698.56 1.27339e-304 0 9.27092e-129 0.000128407 6230.16 1433.23 1.22447e-20 7663.39 -964.825
705.28 3981.84 9.40508e-315 0 1.71877e-134 4.16297e-05 4472.06 355.703 2.95218e-24 4827.77 -845.921
711.92 2587.01 0 0 2.40163e-140 1.30056e-05 3116.82 68.2689 3.94654e-28 3185.08 -598.07
718.56 1849.27 0 0 2.52924e-146 3.91538e-06 2109.15 10.1327 2.92529e-32 2119.29 -270.022
725.18 1344.15 0 0 2.09521e-152 1.14018e-06 1387.61 1.17109 1.2405e-36 1388.79 -44.64
731.8 1014.96 0 0 1.31038e-158 3.20024e-07 886.544 0.104832 2.92711e-41 886.649 128.31
738.41 798.02 0 0 6.3263e-165 8.67508e-08 550.46 0.00729905 3.91083e-46 550.467 247.553
745.02 626.144 0 0 2.30783e-171 2.26685e-08 331.941 0.000393924 2.91263e-51 331.941 294.202
751.61 554.272 0 0 6.66177e-178 5.73413e-09 194.728 1.66444e-05 1.25648e-56 194.728 359.545
758.21 429.465 0 0 1.42172e-184 1.39548e-09 110.867 5.43035e-07 2.97187e-62 110.867 318.599
764.79 399.772 0 0 2.40699e-191 3.28868e-10 61.4215 1.39027e-08 4.09314e-68 61.4215 338.351
771.37 309.611 0 0 3.08701e-198 7.47346e-11 33.0571 2.76531e-10 3.15915e-74 33.0571 276.554
777.94 318.74 0 0 3.07436e-205 1.64149e-11 17.301 4.30129e-12 1.39775e-80 17.301 301.439
784.5 202.286 0 0 2.38052e-212 3.48535e-12 8.80637 5.23794e-14 3.55455e-87 8.80637 193.48
791.06 251.667 0 0 1.39871e-219 7.1376e-13 4.35536 4.9632e-16 5.08337e-94 4.35536 247.312
797.61 272.56 0 0 6.40049e-227 1.41333e-13 2.0953 3.68753e-18 4.19311e-101 2.0953 270.465
804.15 249.294 0 0 2.28392e-234 2.70639e-14 0.980666 2.1507e-20 2.00023e-108 0.980666 248.313
810.68 267.88 0 0 6.36317e-242 5.01263e-15 0.446587 9.85806e-23 5.5325e-116 0.446587 267.433
817.21 279.437 0 0 1.34864e-249 8.95745e-16 0.197654 3.524e-25 8.65082e-124 0.197654 279.24
823.73 183.91 0 0 2.23549e-257 1.54855e-16 0.0851316 9.91536e-28 7.87063e-132 0.0851316 183.825
830.25 225.933 0 0 2.82126e-265 2.5832e-17 0.0356393 2.17743e-30 4.05521e-140 0.0356393 225.897
836.75 258.395 0 0 2.87e-273 4.18155e-18 0.0145424 3.8071e-33 1.25784e-148 0.0145424 258.38
843.25 316.81 0 0 2.22658e-281 6.53283e-19 0.00576863 5.20316e-36 2.2172e-157 0.00576863 316.804
849.74 291.111 0 0 1.35663e-289 9.87931e-20 0.00222784 5.61845e-39 2.29393e-166 0.00222784 291.108
856.23 338.553 0 0 6.30907e-298 1.44206e-20 0.00083649 4.7459e-42 1.35106e-175 0.00083649 338.552
862.71 310.353 0 0 2.30812e-306 2.03797e-21 0.000305836 3.17215e-45 4.68681e-185 0.000305836 310.353
869.18 314.545 0 0 6.65098e-315 2.78893e-22 0.000108898 1.67964e-48 9.60093e-195 0.000108898 314.545
875.64 321.152 0 0 0 3.69637e-23 3.77675e-05 7.05333e-52 1.16443e-204 3.77675e-05 321.152
882.1 232.782 0 0 0 4.73029e-24 1.27378e-05 2.32225e-55 8.08141e-215 1.27378e-05 232.782
888.54 226.708 0 0 0 5.88314e-25 4.19243e-06 6.15221e-59 3.4595e-225 4.19243e-06 226.708
894.98 241.044 0 0 0 7.06641e-26 1.34212e-06 1.2798e-62 8.50382e-236 1.34212e-06 241.044
899.7 189.041 0 0 0 1.46219e-26 5.7225e-07 2.1975e-65 1.0018e-243 5.7225e-07 189.041