File: assets/data/P12/uvvis/air.txt
SpectraSuite Data File
++++++++++++++++++++++++++++++++++++
Date: Tue Mar 29 10:28:00 CEST 2016
User: IPCE
Dark Spectrum Present: Yes
Reference Spectrum Present: Yes
Number of Sampled Component Spectra: 1
Spectrometers: HR+C0708
Integration Time (usec): 1000 (HR+C0708)
Spectra Averaged: 10 (HR+C0708)
Boxcar Smoothing: 0 (HR+C0708)
Correct for Electrical Dark: No (HR+C0708)
Strobe/Lamp Enabled: No (HR+C0708)
Correct for Detector Non-linearity: No (HR+C0708)
Correct for Stray Light: No (HR+C0708)
Number of Pixels in Processed Spectrum: 2048
>>>>>Begin Processed Spectral Data<<<<<
188.76	0.209
192.06	0.447
195.37	0.177
198.67	0.112
201.97	0.046
205.28	0.079
208.58	-0.010
211.88	0.110
215.18	0.137
218.47	0.126
221.77	0.085
225.06	0.051
228.36	0.045
231.65	0.044
234.94	0.039
238.23	0.036
241.52	0.033
244.81	0.035
248.10	0.036
251.39	0.033
254.67	0.032
257.95	0.031
261.24	0.032
264.52	0.030
267.80	0.029
271.08	0.030
274.36	0.028
277.63	0.028
280.91	0.027
284.18	0.029
287.46	0.025
290.73	0.026
294.00	0.025
297.27	0.026
300.54	0.024
303.81	0.025
307.07	0.024
310.34	0.024
313.60	0.024
316.86	0.025
320.13	0.022
323.39	0.022
326.64	0.023
329.90	0.022
333.16	0.020
336.42	0.021
339.67	0.020
342.92	0.021
346.17	0.019
349.43	0.019
352.67	0.023
355.92	0.017
359.17	0.021
362.42	0.021
365.66	0.022
368.90	0.021
372.15	0.020
375.39	0.020
378.63	0.020
381.87	0.021
385.10	0.017
388.34	0.021
391.57	0.019
394.81	0.020
398.04	0.018
401.27	0.019
404.50	0.017
407.73	0.017
410.96	0.018
414.18	0.019
417.41	0.016
420.63	0.017
423.85	0.019
427.07	0.021
430.29	0.018
433.51	0.018
436.73	0.020
439.94	0.016
443.16	0.014
446.37	0.017
449.58	0.018
452.79	0.019
456.00	0.016
459.21	0.017
462.42	0.016
465.62	0.016
468.83	0.015
472.03	0.021
475.23	0.017
478.43	0.017
481.63	0.017
484.83	0.018
488.03	0.015
491.22	0.016
494.42	0.015
497.61	0.014
500.80	0.014
503.99	0.015
507.18	0.016
510.36	0.015
513.55	0.016
516.73	0.013
519.92	0.015
523.10	0.013
526.28	0.016
529.46	0.017
532.64	0.016
535.81	0.015
538.99	0.016
542.16	0.016
545.34	0.016
548.51	0.013
551.68	0.016
554.84	0.015
558.01	0.013
561.18	0.014
564.34	0.014
567.50	0.016
570.67	0.015
573.83	0.014
576.98	0.013
580.14	0.014
583.30	0.013
586.45	0.011
589.61	0.013
592.76	0.014
595.91	0.013
599.06	0.014
602.21	0.013
605.35	0.013
608.50	0.012
611.64	0.013
614.78	0.013
617.92	0.013
621.06	0.013
624.20	0.010
627.34	0.012
630.47	0.014
633.61	0.013
636.74	0.012
639.87	0.013
643.00	0.012
646.13	0.013
649.25	0.012
652.38	0.014
655.50	0.013
658.62	0.013
661.74	0.011
664.86	0.013
667.98	0.014
671.10	0.012
674.21	0.012
677.33	0.013
680.44	0.008
683.55	0.012
686.66	0.013
689.77	0.014
692.87	0.013
695.98	0.012
699.08	0.013
702.18	0.013
705.28	0.013
708.38	0.011
711.48	0.010
714.58	0.011
717.67	0.011
720.76	0.013
723.86	0.011
726.95	0.010
730.03	0.012
733.12	0.011
736.21	0.010
739.29	0.010
742.37	0.009
745.46	0.012
748.54	0.009
751.61	0.011
754.69	0.010
757.77	0.013
760.84	0.011
763.91	0.010
766.98	0.009
770.05	0.007
773.12	0.009
776.19	0.008
779.25	0.009
782.31	0.011
785.37	0.008
788.43	0.008
791.49	0.009
794.55	0.010
797.61	0.010
800.66	0.011
803.71	0.008
806.76	0.008
809.81	0.008
812.86	0.008
815.91	0.004
818.95	0.008
821.99	0.002
825.04	0.006
828.08	0.002
831.11	0.007
834.15	0.006
837.19	0.007
840.22	0.006
843.25	0.005
846.28	0.011
849.31	0.004
852.34	0.006
855.36	0.008
858.39	0.003
861.41	0.005
864.43	0.013
867.45	0.009
870.47	0.007
873.49	0.005
876.50	0.007
879.51	0.007
882.53	0.006
885.54	0.003
888.54	0.005
891.55	0.010
894.56	0.007
897.56	0.006
900.56	0.002
903.56	0.007
906.56	0.003
909.56	0.003
912.55	0.011
915.55	0.004
918.54	0.009
921.53	0.005
924.52	0.007
927.50	0.006
930.49	0.009
933.47	0.008
936.46	0.006
939.44	0.011
942.42	0.002
945.39	0.012
948.37	-0.001
951.34	0.002
954.32	0.007
957.29	0.011
960.26	0.006
963.22	0.001
966.19	0.009
969.15	0.010
972.12	0.008
975.08	0.006
978.04	0.008
980.99	0.011
983.95	0.009
986.90	0.008
989.86	0.005
992.81	0.010
995.76	0.008
998.70	0.012
1001.65	0.010
1004.59	0.012
1007.54	-0.002
1010.48	0.009
1013.42	0.008
1016.35	0.006
1019.29	0.002
1022.22	0.003
1025.15	0.013
1028.08	0.009
1031.01	0.019
1033.94	0.026
1036.87	0.006
1039.79	0.024
1042.71	0.023
1045.63	0.019
1048.55	0.016
1051.47	0.020
1054.38	0.037
1057.29	0.044
1060.21	0.001
1063.12	0.055
1066.02	-0.011
1068.93	0.044
1071.83	0.134
1074.74	0.118
1077.64	0.093
1080.54	0.024
1083.44	-0.037
1086.33	0.294
1089.22	0.903
1092.12	0.753
1095.01	0.009
1097.90	0.347
1099.13	0.338
>>>>>End Processed Spectral Data<<<<<