File: assets/data/P12/uvvis/cuvette-4sides-clear.txt
SpectraSuite Data File
++++++++++++++++++++++++++++++++++++
Date: Sun Apr 24 18:33:24 CEST 2016
User: spectrasuite
Dark Spectrum Present: Yes
Reference Spectrum Present: Yes
Number of Sampled Component Spectra: 1
Spectrometers: HR+C0708
Integration Time (usec): 1000 (HR+C0708)
Spectra Averaged: 10 (HR+C0708)
Boxcar Smoothing: 0 (HR+C0708)
Correct for Electrical Dark: No (HR+C0708)
Strobe/Lamp Enabled: No (HR+C0708)
Correct for Detector Non-linearity: No (HR+C0708)
Correct for Stray Light: No (HR+C0708)
Number of Pixels in Processed Spectrum: 2048
>>>>>Begin Processed Spectral Data<<<<<
188.76	0.369
192.06	0.270
195.37	-0.000
198.67	0.236
201.97	0.272
205.28	0.198
208.58	0.252
211.88	0.283
215.18	0.297
218.47	0.226
221.77	0.257
225.06	0.536
228.36	0.811
231.65	1.098
234.94	1.473
238.23	1.667
241.52	1.928
244.81	2.019
248.10	2.042
251.39	1.950
254.67	1.221
257.95	0.858
261.24	0.681
264.52	0.569
267.80	0.483
271.08	0.415
274.36	0.359
277.63	0.313
280.91	0.278
284.18	0.251
287.46	0.226
290.73	0.208
294.00	0.194
297.27	0.184
300.54	0.174
303.81	0.168
307.07	0.158
310.34	0.150
313.60	0.139
316.86	0.132
320.13	0.123
323.39	0.117
326.64	0.113
329.90	0.107
333.16	0.102
336.42	0.098
339.67	0.097
342.92	0.093
346.17	0.090
349.43	0.091
352.67	0.093
355.92	0.091
359.17	0.087
362.42	0.088
365.66	0.083
368.90	0.082
372.15	0.083
375.39	0.080
378.63	0.080
381.87	0.079
385.10	0.080
388.34	0.078
391.57	0.079
394.81	0.079
398.04	0.078
401.27	0.076
404.50	0.078
407.73	0.077
410.96	0.079
414.18	0.076
417.41	0.075
420.63	0.075
423.85	0.074
427.07	0.074
430.29	0.076
433.51	0.074
436.73	0.073
439.94	0.073
443.16	0.072
446.37	0.071
449.58	0.073
452.79	0.072
456.00	0.072
459.21	0.074
462.42	0.072
465.62	0.071
468.83	0.068
472.03	0.070
475.23	0.072
478.43	0.070
481.63	0.071
484.83	0.067
488.03	0.070
491.22	0.069
494.42	0.070
497.61	0.068
500.80	0.066
503.99	0.067
507.18	0.069
510.36	0.067
513.55	0.069
516.73	0.070
519.92	0.069
523.10	0.067
526.28	0.066
529.46	0.068
532.64	0.068
535.81	0.066
538.99	0.068
542.16	0.069
545.34	0.068
548.51	0.065
551.68	0.068
554.84	0.065
558.01	0.067
561.18	0.066
564.34	0.066
567.50	0.064
570.67	0.065
573.83	0.064
576.98	0.065
580.14	0.061
583.30	0.065
586.45	0.064
589.61	0.062
592.76	0.064
595.91	0.065
599.06	0.064
602.21	0.062
605.35	0.065
608.50	0.063
611.64	0.065
614.78	0.061
617.92	0.065
621.06	0.065
624.20	0.062
627.34	0.063
630.47	0.061
633.61	0.063
636.74	0.063
639.87	0.063
643.00	0.062
646.13	0.064
649.25	0.065
652.38	0.064
655.50	0.062
658.62	0.064
661.74	0.063
664.86	0.061
667.98	0.063
671.10	0.062
674.21	0.062
677.33	0.061
680.44	0.064
683.55	0.064
686.66	0.061
689.77	0.063
692.87	0.061
695.98	0.062
699.08	0.064
702.18	0.063
705.28	0.064
708.38	0.063
711.48	0.065
714.58	0.064
717.67	0.065
720.76	0.064
723.86	0.064
726.95	0.063
730.03	0.064
733.12	0.063
736.21	0.064
739.29	0.066
742.37	0.062
745.46	0.066
748.54	0.066
751.61	0.065
754.69	0.064
757.77	0.063
760.84	0.062
763.91	0.064
766.98	0.063
770.05	0.062
773.12	0.061
776.19	0.061
779.25	0.063
782.31	0.061
785.37	0.062
788.43	0.062
791.49	0.063
794.55	0.062
797.61	0.064
800.66	0.063
803.71	0.062
806.76	0.064
809.81	0.061
812.86	0.062
815.91	0.061
818.95	0.061
821.99	0.062
825.04	0.060
828.08	0.062
831.11	0.063
834.15	0.061
837.19	0.065
840.22	0.061
843.25	0.060
846.28	0.058
849.31	0.062
852.34	0.062
855.36	0.056
858.39	0.064
861.41	0.066
864.43	0.062
867.45	0.063
870.47	0.067
873.49	0.066
876.50	0.065
879.51	0.065
882.53	0.069
885.54	0.059
888.54	0.062
891.55	0.061
894.56	0.064
897.56	0.065
900.56	0.072
903.56	0.064
906.56	0.063
909.56	0.064
912.55	0.067
915.55	0.063
918.54	0.063
921.53	0.063
924.52	0.063
927.50	0.064
930.49	0.063
933.47	0.066
936.46	0.067
939.44	0.055
942.42	0.062
945.39	0.066
948.37	0.061
951.34	0.063
954.32	0.061
957.29	0.058
960.26	0.063
963.22	0.059
966.19	0.062
969.15	0.059
972.12	0.059
975.08	0.067
978.04	0.053
980.99	0.058
983.95	0.062
986.90	0.059
989.86	0.061
992.81	0.064
995.76	0.056
998.70	0.066
1001.65	0.068
1004.59	0.062
1007.54	0.059
1010.48	0.064
1013.42	0.065
1016.35	0.063
1019.29	0.062
1022.22	0.064
1025.15	0.061
1028.08	0.072
1031.01	0.074
1033.94	0.056
1036.87	0.053
1039.79	0.068
1042.71	0.055
1045.63	0.067
1048.55	0.057
1051.47	0.077
1054.38	0.071
1057.29	0.029
1060.21	0.021
1063.12	0.051
1066.02	0.062
1068.93	-0.015
1071.83	-0.013
1074.74	0.029
1077.64	0.055
1080.54	-0.006
1083.44	0.087
1086.33	0.033
1089.22	0.647
1092.12	0.068
1095.01	0.196
1097.90	0.115
1099.13	0.316
>>>>>End Processed Spectral Data<<<<<