File: assets/data/P12/uvvis/cuvette.txt
SpectraSuite Data File
++++++++++++++++++++++++++++++++++++
Date: Tue Mar 29 10:29:44 CEST 2016
User: IPCE
Dark Spectrum Present: Yes
Reference Spectrum Present: Yes
Number of Sampled Component Spectra: 1
Spectrometers: HR+C0708
Integration Time (usec): 1000 (HR+C0708)
Spectra Averaged: 10 (HR+C0708)
Boxcar Smoothing: 0 (HR+C0708)
Correct for Electrical Dark: No (HR+C0708)
Strobe/Lamp Enabled: No (HR+C0708)
Correct for Detector Non-linearity: No (HR+C0708)
Correct for Stray Light: No (HR+C0708)
Number of Pixels in Processed Spectrum: 2048
>>>>>Begin Processed Spectral Data<<<<<
188.76	0.137
192.06	-0.008
195.37	0.231
198.67	-0.286
201.97	0.239
205.28	0.303
208.58	0.246
211.88	0.308
215.18	0.508
218.47	0.759
221.77	0.709
225.06	0.878
228.36	1.223
231.65	1.468
234.94	1.812
238.23	2.088
241.52	2.085
244.81	2.122
248.10	2.218
251.39	2.085
254.67	1.718
257.95	1.302
261.24	1.026
264.52	0.837
267.80	0.691
271.08	0.578
274.36	0.483
277.63	0.412
280.91	0.358
284.18	0.311
287.46	0.277
290.73	0.240
294.00	0.217
297.27	0.190
300.54	0.168
303.81	0.151
307.07	0.134
310.34	0.123
313.60	0.112
316.86	0.106
320.13	0.098
323.39	0.093
326.64	0.090
329.90	0.086
333.16	0.082
336.42	0.080
339.67	0.079
342.92	0.076
346.17	0.078
349.43	0.073
352.67	0.076
355.92	0.070
359.17	0.071
362.42	0.069
365.66	0.069
368.90	0.068
372.15	0.065
375.39	0.067
378.63	0.065
381.87	0.068
385.10	0.060
388.34	0.063
391.57	0.062
394.81	0.064
398.04	0.061
401.27	0.062
404.50	0.062
407.73	0.061
410.96	0.060
414.18	0.060
417.41	0.060
420.63	0.060
423.85	0.060
427.07	0.062
430.29	0.059
433.51	0.058
436.73	0.060
439.94	0.057
443.16	0.052
446.37	0.055
449.58	0.058
452.79	0.056
456.00	0.054
459.21	0.055
462.42	0.053
465.62	0.053
468.83	0.053
472.03	0.054
475.23	0.054
478.43	0.053
481.63	0.052
484.83	0.053
488.03	0.050
491.22	0.052
494.42	0.050
497.61	0.052
500.80	0.050
503.99	0.052
507.18	0.051
510.36	0.051
513.55	0.051
516.73	0.048
519.92	0.049
523.10	0.048
526.28	0.049
529.46	0.050
532.64	0.049
535.81	0.048
538.99	0.052
542.16	0.049
545.34	0.048
548.51	0.048
551.68	0.048
554.84	0.046
558.01	0.046
561.18	0.046
564.34	0.047
567.50	0.047
570.67	0.047
573.83	0.044
576.98	0.043
580.14	0.044
583.30	0.043
586.45	0.042
589.61	0.042
592.76	0.045
595.91	0.042
599.06	0.044
602.21	0.044
605.35	0.042
608.50	0.042
611.64	0.043
614.78	0.042
617.92	0.043
621.06	0.040
624.20	0.041
627.34	0.041
630.47	0.042
633.61	0.043
636.74	0.040
639.87	0.042
643.00	0.041
646.13	0.041
649.25	0.039
652.38	0.042
655.50	0.040
658.62	0.041
661.74	0.040
664.86	0.042
667.98	0.041
671.10	0.043
674.21	0.042
677.33	0.040
680.44	0.040
683.55	0.042
686.66	0.040
689.77	0.042
692.87	0.042
695.98	0.042
699.08	0.041
702.18	0.043
705.28	0.042
708.38	0.040
711.48	0.042
714.58	0.042
717.67	0.043
720.76	0.043
723.86	0.043
726.95	0.042
730.03	0.043
733.12	0.041
736.21	0.042
739.29	0.041
742.37	0.043
745.46	0.043
748.54	0.042
751.61	0.042
754.69	0.044
757.77	0.044
760.84	0.043
763.91	0.042
766.98	0.043
770.05	0.040
773.12	0.044
776.19	0.042
779.25	0.041
782.31	0.044
785.37	0.045
788.43	0.040
791.49	0.043
794.55	0.042
797.61	0.045
800.66	0.045
803.71	0.044
806.76	0.044
809.81	0.045
812.86	0.042
815.91	0.039
818.95	0.043
821.99	0.040
825.04	0.041
828.08	0.041
831.11	0.042
834.15	0.044
837.19	0.045
840.22	0.041
843.25	0.040
846.28	0.042
849.31	0.041
852.34	0.040
855.36	0.045
858.39	0.042
861.41	0.039
864.43	0.048
867.45	0.046
870.47	0.040
873.49	0.048
876.50	0.048
879.51	0.048
882.53	0.052
885.54	0.045
888.54	0.046
891.55	0.052
894.56	0.050
897.56	0.051
900.56	0.051
903.56	0.050
906.56	0.046
909.56	0.043
912.55	0.051
915.55	0.045
918.54	0.044
921.53	0.044
924.52	0.045
927.50	0.042
930.49	0.047
933.47	0.043
936.46	0.049
939.44	0.048
942.42	0.045
945.39	0.047
948.37	0.043
951.34	0.043
954.32	0.047
957.29	0.046
960.26	0.047
963.22	0.044
966.19	0.039
969.15	0.046
972.12	0.043
975.08	0.044
978.04	0.041
980.99	0.045
983.95	0.042
986.90	0.046
989.86	0.047
992.81	0.046
995.76	0.045
998.70	0.050
1001.65	0.043
1004.59	0.050
1007.54	0.043
1010.48	0.051
1013.42	0.045
1016.35	0.045
1019.29	0.038
1022.22	0.057
1025.15	0.050
1028.08	0.056
1031.01	0.046
1033.94	0.056
1036.87	0.059
1039.79	0.052
1042.71	0.047
1045.63	0.056
1048.55	0.054
1051.47	0.043
1054.38	0.069
1057.29	0.065
1060.21	0.064
1063.12	0.113
1066.02	0.027
1068.93	0.206
1071.83	0.130
1074.74	0.240
1077.64	0.070
1080.54	0.086
1083.44	0.085
1086.33	1.007
1089.22	0.575
1092.12	1.230
1095.01	0.435
1097.90	0.232
1099.13	0.267
>>>>>End Processed Spectral Data<<<<<