File: assets/data/P12/uvvis/cuvette+water.txt
SpectraSuite Data File
++++++++++++++++++++++++++++++++++++
Date: Tue Mar 29 10:36:14 CEST 2016
User: IPCE
Dark Spectrum Present: Yes
Reference Spectrum Present: Yes
Number of Sampled Component Spectra: 1
Spectrometers: HR+C0708
Integration Time (usec): 1000 (HR+C0708)
Spectra Averaged: 10 (HR+C0708)
Boxcar Smoothing: 0 (HR+C0708)
Correct for Electrical Dark: No (HR+C0708)
Strobe/Lamp Enabled: No (HR+C0708)
Correct for Detector Non-linearity: No (HR+C0708)
Correct for Stray Light: No (HR+C0708)
Number of Pixels in Processed Spectrum: 2048
>>>>>Begin Processed Spectral Data<<<<<
188.76	0.663
192.06	0.076
195.37	0.935
198.67	-0.038
201.97	0.288
205.28	0.215
208.58	0.384
211.88	0.250
215.18	0.417
218.47	0.527
221.77	0.716
225.06	1.188
228.36	1.182
231.65	1.624
234.94	1.707
238.23	1.981
241.52	2.017
244.81	2.088
248.10	2.194
251.39	2.091
254.67	1.709
257.95	1.239
261.24	0.972
264.52	0.775
267.80	0.629
271.08	0.513
274.36	0.422
277.63	0.352
280.91	0.296
284.18	0.255
287.46	0.223
290.73	0.193
294.00	0.164
297.27	0.141
300.54	0.120
303.81	0.101
307.07	0.085
310.34	0.074
313.60	0.063
316.86	0.057
320.13	0.050
323.39	0.046
326.64	0.045
329.90	0.037
333.16	0.034
336.42	0.034
339.67	0.030
342.92	0.029
346.17	0.027
349.43	0.027
352.67	0.028
355.92	0.025
359.17	0.025
362.42	0.026
365.66	0.025
368.90	0.025
372.15	0.020
375.39	0.020
378.63	0.023
381.87	0.022
385.10	0.020
388.34	0.020
391.57	0.019
394.81	0.018
398.04	0.020
401.27	0.018
404.50	0.017
407.73	0.017
410.96	0.018
414.18	0.017
417.41	0.016
420.63	0.019
423.85	0.018
427.07	0.019
430.29	0.017
433.51	0.019
436.73	0.019
439.94	0.015
443.16	0.015
446.37	0.019
449.58	0.014
452.79	0.016
456.00	0.015
459.21	0.016
462.42	0.016
465.62	0.013
468.83	0.015
472.03	0.017
475.23	0.016
478.43	0.016
481.63	0.013
484.83	0.015
488.03	0.012
491.22	0.012
494.42	0.012
497.61	0.014
500.80	0.013
503.99	0.014
507.18	0.012
510.36	0.014
513.55	0.013
516.73	0.010
519.92	0.014
523.10	0.010
526.28	0.011
529.46	0.014
532.64	0.012
535.81	0.010
538.99	0.013
542.16	0.010
545.34	0.012
548.51	0.010
551.68	0.010
554.84	0.009
558.01	0.010
561.18	0.009
564.34	0.012
567.50	0.012
570.67	0.011
573.83	0.009
576.98	0.010
580.14	0.009
583.30	0.008
586.45	0.009
589.61	0.008
592.76	0.010
595.91	0.008
599.06	0.009
602.21	0.010
605.35	0.008
608.50	0.009
611.64	0.008
614.78	0.008
617.92	0.007
621.06	0.007
624.20	0.006
627.34	0.008
630.47	0.008
633.61	0.008
636.74	0.008
639.87	0.007
643.00	0.007
646.13	0.007
649.25	0.007
652.38	0.008
655.50	0.006
658.62	0.006
661.74	0.006
664.86	0.007
667.98	0.009
671.10	0.007
674.21	0.009
677.33	0.007
680.44	0.005
683.55	0.006
686.66	0.007
689.77	0.009
692.87	0.006
695.98	0.008
699.08	0.007
702.18	0.008
705.28	0.008
708.38	0.006
711.48	0.009
714.58	0.007
717.67	0.009
720.76	0.010
723.86	0.011
726.95	0.011
730.03	0.011
733.12	0.010
736.21	0.012
739.29	0.014
742.37	0.016
745.46	0.018
748.54	0.017
751.61	0.017
754.69	0.014
757.77	0.017
760.84	0.016
763.91	0.016
766.98	0.014
770.05	0.013
773.12	0.016
776.19	0.016
779.25	0.015
782.31	0.017
785.37	0.015
788.43	0.014
791.49	0.011
794.55	0.012
797.61	0.012
800.66	0.013
803.71	0.012
806.76	0.014
809.81	0.014
812.86	0.014
815.91	0.012
818.95	0.015
821.99	0.006
825.04	0.014
828.08	0.012
831.11	0.016
834.15	0.017
837.19	0.020
840.22	0.019
843.25	0.018
846.28	0.021
849.31	0.021
852.34	0.020
855.36	0.023
858.39	0.023
861.41	0.023
864.43	0.026
867.45	0.033
870.47	0.019
873.49	0.031
876.50	0.026
879.51	0.028
882.53	0.031
885.54	0.029
888.54	0.031
891.55	0.034
894.56	0.035
897.56	0.037
900.56	0.039
903.56	0.038
906.56	0.039
909.56	0.035
912.55	0.047
915.55	0.038
918.54	0.041
921.53	0.048
924.52	0.046
927.50	0.053
930.49	0.062
933.47	0.066
936.46	0.074
939.44	0.086
942.42	0.084
945.39	0.105
948.37	0.116
951.34	0.130
954.32	0.160
957.29	0.179
960.26	0.192
963.22	0.198
966.19	0.203
969.15	0.213
972.12	0.211
975.08	0.215
978.04	0.216
980.99	0.219
983.95	0.212
986.90	0.217
989.86	0.200
992.81	0.201
995.76	0.196
998.70	0.196
1001.65	0.189
1004.59	0.185
1007.54	0.179
1010.48	0.169
1013.42	0.168
1016.35	0.144
1019.29	0.139
1022.22	0.134
1025.15	0.139
1028.08	0.134
1031.01	0.121
1033.94	0.125
1036.87	0.128
1039.79	0.125
1042.71	0.117
1045.63	0.117
1048.55	0.087
1051.47	0.105
1054.38	0.087
1057.29	0.124
1060.21	0.109
1063.12	0.101
1066.02	0.110
1068.93	0.115
1071.83	0.216
1074.74	0.076
1077.64	0.165
1080.54	-0.042
1083.44	0.185
1086.33	0.349
1089.22	0.335
1092.12	-0.000
1095.01	0.259
1097.90	0.585
1099.13	0.356
>>>>>End Processed Spectral Data<<<<<