File: assets/data/P12/uvvis/cuvette+EtOH.txt
SpectraSuite Data File
++++++++++++++++++++++++++++++++++++
Date: Tue Mar 29 10:35:07 CEST 2016
User: IPCE
Dark Spectrum Present: Yes
Reference Spectrum Present: Yes
Number of Sampled Component Spectra: 1
Spectrometers: HR+C0708
Integration Time (usec): 1000 (HR+C0708)
Spectra Averaged: 10 (HR+C0708)
Boxcar Smoothing: 0 (HR+C0708)
Correct for Electrical Dark: No (HR+C0708)
Strobe/Lamp Enabled: No (HR+C0708)
Correct for Detector Non-linearity: No (HR+C0708)
Correct for Stray Light: No (HR+C0708)
Number of Pixels in Processed Spectrum: 2048
>>>>>Begin Processed Spectral Data<<<<<
188.76	0.356
192.06	-0.065
195.37	0.458
198.67	-0.195
201.97	0.220
205.28	0.209
208.58	0.252
211.88	0.399
215.18	0.445
218.47	0.567
221.77	0.649
225.06	0.922
228.36	1.126
231.65	1.508
234.94	1.685
238.23	1.938
241.52	2.070
244.81	2.097
248.10	2.114
251.39	2.084
254.67	1.756
257.95	1.290
261.24	1.019
264.52	0.828
267.80	0.681
271.08	0.571
274.36	0.481
277.63	0.409
280.91	0.348
284.18	0.305
287.46	0.257
290.73	0.210
294.00	0.177
297.27	0.153
300.54	0.128
303.81	0.110
307.07	0.092
310.34	0.076
313.60	0.067
316.86	0.060
320.13	0.051
323.39	0.049
326.64	0.046
329.90	0.037
333.16	0.032
336.42	0.031
339.67	0.030
342.92	0.025
346.17	0.024
349.43	0.023
352.67	0.025
355.92	0.018
359.17	0.017
362.42	0.017
365.66	0.018
368.90	0.016
372.15	0.013
375.39	0.015
378.63	0.016
381.87	0.014
385.10	0.010
388.34	0.013
391.57	0.010
394.81	0.010
398.04	0.011
401.27	0.011
404.50	0.008
407.73	0.010
410.96	0.011
414.18	0.009
417.41	0.008
420.63	0.008
423.85	0.009
427.07	0.011
430.29	0.008
433.51	0.010
436.73	0.009
439.94	0.010
443.16	0.007
446.37	0.009
449.58	0.007
452.79	0.007
456.00	0.007
459.21	0.008
462.42	0.007
465.62	0.006
468.83	0.006
472.03	0.006
475.23	0.005
478.43	0.006
481.63	0.005
484.83	0.005
488.03	0.004
491.22	0.005
494.42	0.002
497.61	0.003
500.80	0.003
503.99	0.004
507.18	0.003
510.36	0.004
513.55	0.002
516.73	0.001
519.92	0.001
523.10	0.001
526.28	0.003
529.46	0.005
532.64	0.002
535.81	0.002
538.99	0.004
542.16	0.002
545.34	0.002
548.51	0.001
551.68	0.002
554.84	0.000
558.01	0.002
561.18	-0.000
564.34	0.001
567.50	0.001
570.67	0.002
573.83	0.001
576.98	-0.000
580.14	0.000
583.30	-0.001
586.45	-0.000
589.61	0.000
592.76	-0.000
595.91	-0.001
599.06	-0.001
602.21	-0.000
605.35	-0.003
608.50	-0.002
611.64	-0.001
614.78	-0.001
617.92	-0.001
621.06	-0.003
624.20	-0.002
627.34	-0.002
630.47	-0.002
633.61	-0.002
636.74	-0.001
639.87	-0.002
643.00	-0.002
646.13	-0.002
649.25	-0.003
652.38	-0.002
655.50	-0.002
658.62	-0.004
661.74	-0.005
664.86	-0.004
667.98	-0.004
671.10	-0.004
674.21	-0.004
677.33	-0.003
680.44	-0.006
683.55	-0.005
686.66	-0.004
689.77	-0.005
692.87	-0.005
695.98	-0.004
699.08	-0.005
702.18	-0.004
705.28	-0.004
708.38	-0.005
711.48	-0.003
714.58	-0.004
717.67	-0.002
720.76	-0.003
723.86	-0.004
726.95	-0.004
730.03	-0.002
733.12	-0.002
736.21	-0.002
739.29	0.001
742.37	0.002
745.46	0.003
748.54	-0.001
751.61	0.000
754.69	0.002
757.77	0.002
760.84	0.000
763.91	0.001
766.98	0.002
770.05	-0.001
773.12	0.004
776.19	0.001
779.25	0.002
782.31	0.001
785.37	0.003
788.43	0.001
791.49	-0.002
794.55	0.001
797.61	0.003
800.66	0.002
803.71	0.002
806.76	0.002
809.81	0.002
812.86	0.003
815.91	-0.002
818.95	0.003
821.99	0.001
825.04	0.003
828.08	-0.001
831.11	0.001
834.15	0.003
837.19	0.003
840.22	0.001
843.25	0.004
846.28	0.006
849.31	0.002
852.34	0.004
855.36	0.008
858.39	0.001
861.41	0.003
864.43	0.008
867.45	0.009
870.47	0.000
873.49	0.009
876.50	0.010
879.51	0.017
882.53	0.016
885.54	0.015
888.54	0.016
891.55	0.023
894.56	0.029
897.56	0.033
900.56	0.044
903.56	0.055
906.56	0.059
909.56	0.066
912.55	0.058
915.55	0.044
918.54	0.039
921.53	0.038
924.52	0.037
927.50	0.035
930.49	0.036
933.47	0.031
936.46	0.037
939.44	0.039
942.42	0.034
945.39	0.028
948.37	0.027
951.34	0.016
954.32	0.023
957.29	0.022
960.26	0.025
963.22	0.022
966.19	0.024
969.15	0.030
972.12	0.028
975.08	0.031
978.04	0.030
980.99	0.035
983.95	0.037
986.90	0.041
989.86	0.042
992.81	0.044
995.76	0.050
998.70	0.053
1001.65	0.058
1004.59	0.066
1007.54	0.059
1010.48	0.074
1013.42	0.074
1016.35	0.070
1019.29	0.064
1022.22	0.082
1025.15	0.071
1028.08	0.068
1031.01	0.064
1033.94	0.072
1036.87	0.067
1039.79	0.079
1042.71	0.081
1045.63	0.072
1048.55	0.092
1051.47	0.082
1054.38	0.072
1057.29	0.055
1060.21	0.056
1063.12	0.096
1066.02	0.042
1068.93	0.142
1071.83	0.069
1074.74	0.258
1077.64	0.259
1080.54	0.362
1083.44	0.141
1086.33	0.382
1089.22	0.287
1092.12	-0.000
1095.01	0.223
1097.90	0.177
1099.13	0.423
>>>>>End Processed Spectral Data<<<<<