File: assets/data/P03/xps/7B0306_3.asc
Full

C1s
1
290.0000
-0.1000
150
932.0000
923.0000
967.0000
960.0000
935.0000
946.0000
914.0000
895.0000
969.0000
879.0000
967.0000
908.0000
992.0000
1000
973.0000
985.0000
981.0000
1005
1013
980.0000
949.0000
1017
938.0000
992.0000
992.0000
959.0000
895.0000
927.0000
869.0000
926.0000
916.0000
861.0000
841.0000
794.0000
948.0000
927.0000
910.0000
922.0000
938.0000
919.0000
925.0000
870.0000
912.0000
926.0000
918.0000
902.0000
958.0000
893.0000
843.0000
839.0000
871.0000
856.0000
840.0000
862.0000
900.0000
920.0000
920.0000
848.0000
872.0000
907.0000
972.0000
977.0000
954.0000
1067
1038
1129
1140
1216
1254
1315
1331
1441
1355
1423
1458
1434
1356
1382
1327
1317
1275
1244
1333
1242
1256
1212
1306
1228
1303
1366
1431
1526
1633
1542
1670
1743
1854
2009
2085
2308
2579
2871
3420
3817
4434
5124
5747
6140
6506
6953
6832
6852
6474
5926
5177
4339
3497
2933
2468
1927
1652
1341
1237
1065
937.0000
896.0000
887.0000
872.0000
876.0000
850.0000
852.0000
841.0000
813.0000
891.0000
784.0000
785.0000
821.0000
834.0000
816.0000
797.0000
818.0000
760.0000
802.0000
809.0000
834.0000
846.0000
771.0000
828.0000
801.0000
838.0000

Full

O1s
1
535.0000
-0.1000
150
1861
1932
1809
1822
1848
1844
1823
1823
1840
1824
1790
1767
1831
1705
1748
1712
1702
1798
1697
1755
1782
1800
1744
1759
1679
1760
1760
1725
1750
1674
1748
1721
1691
1699
1766
1673
1703
1732
1784
1684
1842
1786
1835
1787
1757
1801
1861
1875
1767
1715
1750
1731
1779
1854
1793
1735
1747
1803
1733
1827
1737
1791
1910
1872
1888
2024
2079
2108
2149
2184
2280
2336
2530
2604
2706
2778
2849
3010
3168
3260
3391
3486
3705
4000
4113
4415
4615
4777
4933
5076
5140
5143
5169
5229
5224
5095
5167
5081
5129
5323
5790
6109
6508
7185
7636
8475
8826
9035
9324
8892
8629
7996
7381
6424
5565
4751
4042
3351
2915
2480
2115
1808
1713
1575
1539
1453
1461
1463
1375
1413
1375
1436
1355
1376
1264
1346
1329
1296
1283
1324
1330
1309
1310
1326
1318
1251
1301
1273
1355
1290

Full

Fe2p
1
-0.1000
5179.33
5186.67
5085
5208.67
5139.33
5185.33
5099
5125.67
5174
5184
5093
5077.33
5083.67
5117.67
5080.33
5030.33
5111.67
5194.67
5078
5195.67
5145
5122
5106
5124.67
5068.67
5149.33
5073.33
5120.67
5161.67
5256.67
5155
5229.33
5226.67
5216.33
5293.33
5257.67
5202
5209
5227.67
5205.33
5218
5147.33
5252.33
5127
5119
5137.67
5103.67
5109.33
5073.67
4978
5006.33
5045.67
5001.67
5013.67
4925.33
5047.33
5030.67
5005
5039.33
5019.33
5048.33
5084
5103
5087
5185.33
5165.67
5230
5293.67
5352
5354.33
5353
5452.33
5493.67
5548.33
5561.33
5570.67
5741.33
5650
5791.33
5642.67
5783.33
5666.67
5805.67
5658.33
5609
5460
5377
5347
5262
5076
5013.33
4911
4816
4720.67
4705.67
4638.33
4583.67
4567.33
4652
4608.33
4572.33
4646
4639.67
4628.67
4715.67
4681.33
4687.33
4656.67
4669
4711.33
4624.67
4637
4521.33
4398.67
4509.33
4496.33
4475.67
4379.67
4330
4345
4307
4276.67
4379.33
4185.67
4203
4298.67
4294
4305.33
4317.67
4476
4442.67
4491.67
4588.33
4656.33
4625.33
4818
4894.67
4986
5093
5136.33
5253
5275.67
5431
5576.67
5620.33
5827
5988
5996.67
6103.33
6137.33
6009.67
6025.67
5878.67
5643.33
5427.67
4999
4636
4165.33
3769.67
3356
3240
3091
3005
2946.33
2963.33
2921.33
2906
2906.33
2884.33
2843.67
2805
2875.67
2786
2794.33
2827.67
2816.67
2768
2828.67
2829.33
2843.67
2854.67
2803.33
2797.67
2820
2810.33
2785.33
2807.67
2833.33
2767
2806.33
2810.67
2809.33
2772
2738
2813.33
2834.67
2795.67
2834.33
2806.67
2810.33
2776.33

Full

Zn2p3
1
-0.1000
7916
7769
7896
7750
7862
7908
7730
7774
7763
7792
8028
7781
7792
7664
7783
7868
7884
7694
7561
7905
7862
7900
7813
7766
7910
7959
7958
7801
7821
7674
7717
7735
7904
8028
7901
7852
7704
7974
7843
7927
7881
7904
7801
7782
7897
8082
8058
8120
8054
8289
8159
8746
8784
8806
9080
9193
9102
9178
8813
8700
8488
8334
8106
8160
7999
7983
7989
7955
7822
8043
7853
8007
7938
7887
8069
8034
8004
7811
7903
7958
7993
7824
7995
7802
7883
7842
7887
7813
7868
7863
7731
7811
7915
7706
7798
7806
7728
7865
7800
7654
7926
7852
7647
7781
7834
7962
7729
7767
7667
7837
7871
7722
7699
7675
7718
7762
7822
7725
7723
7786
7724
7784
7774
7775
7778
7789
7765
7928
7799
7852
7761
7612
7710
7599
7720
7732
7742
7812
7583
7704
7654
7690
7756
7782
7476
7591
7780
7693
7794
7695
7772
7623
7725
7613
7677
7786
7891
7702
7612
7799
7901
8007
8124
8061
8236
8697
9118
9583
9846
10307
10509
10909
10741
10124
9710
9454
8641
8441
8061
8055
8069
7734
7830
7850
7735
7752
7826
7593
7883
7665
7731
7899
7765
7894
7817
7784
7879
7728
7783
7723
7686
7747
7697
7763
7694
7743
7712
7793
7620
7786
7644
7804
7789
7627
7773
7805
7832
7653
7759
7751
7889
7625
7882
7659
7555
7913

Full

Ag3d
1
375.0000
-0.1000
200
918.0000
920.0000
920.0000
846.0000
964.0000
900.0000
872.0000
900.0000
910.0000
962.0000
832.0000
942.0000
876.0000
902.0000
874.0000
904.0000
868.0000
850.0000
948.0000
878.0000
868.0000
904.0000
832.0000
868.0000
904.0000
866.0000
882.0000
902.0000
904.0000
932.0000
976.0000
948.0000
784.0000
872.0000
934.0000
908.0000
978.0000
900.0000
892.0000
920.0000
896.0000
1048
910.0000
912.0000
858.0000
844.0000
876.0000
906.0000
880.0000
888.0000
846.0000
900.0000
886.0000
904.0000
1002
924.0000
1126
1224
1346
1418
1414
1686
1890
1996
2010
1966
1976
1906
1756
1638
1386
1346
1292
1112
1086
1020
998.0000
996.0000
870.0000
866.0000
910.0000
874.0000
876.0000
896.0000
956.0000
852.0000
926.0000
990.0000
928.0000
790.0000
786.0000
902.0000
882.0000
914.0000
792.0000
922.0000
826.0000
874.0000
864.0000
878.0000
836.0000
834.0000
872.0000
882.0000
834.0000
866.0000
854.0000
890.0000
932.0000
834.0000
880.0000
840.0000
962.0000
942.0000
998.0000
1104
1168
1300
1428
1542
1830
1906
2302
2458
2496
2532
2452
2328
2088
1844
1682
1526
1426
1260
1178
1140
1032
962.0000
928.0000
968.0000
882.0000
894.0000
926.0000
816.0000
892.0000
800.0000
882.0000
860.0000
904.0000
830.0000
804.0000
858.0000
874.0000
860.0000
932.0000
830.0000
838.0000
814.0000
830.0000
860.0000
844.0000
880.0000
860.0000
798.0000
816.0000
796.0000
856.0000
830.0000
812.0000
868.0000
810.0000
794.0000
854.0000
870.0000
916.0000
848.0000
884.0000
834.0000
812.0000
812.0000
816.0000
828.0000
836.0000
854.0000
904.0000
848.0000
796.0000
896.0000
860.0000
858.0000
822.0000
826.0000
836.0000
870.0000
894.0000
856.0000
870.0000
884.0000
788.0000
880.0000

Full

Sn3d5
1
-0.1000
1228
1149
1174
1186
1170
1263
1224
1242
1218
1204
1160
1179
1236
1215
1165
1224
1195
1218
1241
1304
1217
1199
1160
1201
1208
1204
1186
1227
1189
1154
1213
1167
1180
1195
1262
1228
1207
1186
1251
1183
1155
1171
1198
1235
1182
1191
1187
1249
1181
1274
1265
1216
1141
1197
1238
1189
1191
1236
1235
1134
1226
1200
1211
1239
1263
1180
1265
1221
1244
1245
1215
1294
1217
1267
1251
1262
1301
1315
1324
1323
1392
1485
1468
1500
1463
1521
1567
1611
1644
1743
1749
1741
1757
1799
1666
1694
1546
1591
1509
1469
1421
1405
1384
1369
1364
1323
1291
1222
1318
1247
1239
1243
1203
1160
1066
1064
1040
984.0000
1018
942.0000
1016
1042
956.0000
1004
977.0000
914.0000
947.0000
947.0000
999.0000
946.0000
951.0000
975.0000
985.0000
977.0000
942.0000
991.0000
974.0000
949.0000
955.0000
945.0000
978.0000
942.0000
985.0000
949.0000
931.0000
901.0000
915.0000
953.0000
952.0000
890.0000
968.0000

Full

Si2p
1
110.0000
-0.1000
200
878.5715
847.1429
957.1429
892.8572
854.2857
895.7143
922.8572
971.4286
908.5715
875.7143
885.7143
898.5715
840.0000
910.0000
960.0000
885.7143
925.7143
884.2857
864.2857
907.1429
887.1429
895.7143
932.8572
898.5715
932.8572
938.5715
897.1429
937.1429
870.0000
861.4286
935.7143
938.5715
911.4286
815.7143
912.8572
855.7143
907.1429
917.1429
901.4286
877.1429
917.1429
898.5715
885.7143
937.1429
915.7143
864.2857
861.4286
918.5715
852.8572
842.8572
915.7143
910.0000
828.5715
848.5715
891.4286
897.1429
887.1429
858.5715
867.1429
845.7143
868.5715
861.4286
838.5715
947.1429
880.0000
864.2857
781.4286
834.2857
892.8572
887.1429
880.0000
914.2857
870.0000
935.7143
855.7143
898.5715
887.1429
834.2857
890.0000
864.2857
848.5715
902.8572
830.0000
827.1429
864.2857
862.8572
937.1429
848.5715
895.7143
797.1429
844.2857
827.1429
797.1429
935.7143
884.2857
877.1429
891.4286
858.5715
835.7143
918.5715
900.0000
854.2857
867.1429
885.7143
807.1429
845.7143
798.5715
845.7143
845.7143
850.0000
881.4286
852.8572
890.0000
851.4286
795.7143
900.0000
821.4286
848.5715
851.4286
848.5715
805.7143
902.8572
802.8572
820.0000
920.0000
898.5715
881.4286
865.7143
824.2857
865.7143
931.4286
940.0000
962.8572
921.4286
884.2857
981.4286
944.2857
902.8572
918.5715
954.2857
998.5715
905.7143
958.5715
942.8572
918.5715
892.8572
934.2857
935.7143
964.2857
868.5715
901.4286
997.1429
890.0000
884.2857
922.8572
975.7143
887.1429
934.2857
955.7143
904.2857
918.5715
824.2857
860.0000
968.5715
868.5715
938.5715
881.4286
907.1429
831.4286
895.7143
878.5715
872.8572
915.7143
808.5715
840.0000
931.4286
878.5715
914.2857
977.1429
830.0000
907.1429
847.1429
874.2857
857.1429
887.1429
855.7143
872.8572
898.5715
852.8572
841.4286
838.5715
835.7143
934.2857
800.0000
884.2857
841.4286
905.7143
895.7143
898.5715
888.5715

Full

Fe3p
1
65.0000
-0.1000
200
590.0000
563.0000
591.0000
609.0000
541.0000
610.0000
531.0000
624.0000
541.0000
582.0000
557.0000
529.0000
566.0000
571.0000
568.0000
590.0000
601.0000
591.0000
581.0000
558.0000
626.0000
621.0000
672.0000
577.0000
555.0000
565.0000
592.0000
585.0000
566.0000
564.0000
577.0000
587.0000
608.0000
566.0000
562.0000
553.0000
626.0000
614.0000
617.0000
582.0000
581.0000
611.0000
561.0000
614.0000
616.0000
599.0000
571.0000
561.0000
635.0000
594.0000
627.0000
595.0000
594.0000
616.0000
560.0000
598.0000
554.0000
631.0000
599.0000
591.0000
629.0000
597.0000
645.0000
653.0000
633.0000
626.0000
575.0000
646.0000
631.0000
601.0000
588.0000
608.0000
656.0000
622.0000
581.0000
644.0000
610.0000
615.0000
547.0000
588.0000
601.0000
582.0000
611.0000
606.0000
546.0000
577.0000
557.0000
542.0000
545.0000
582.0000
579.0000
570.0000
573.0000
544.0000
574.0000
565.0000
552.0000
592.0000
571.0000
550.0000
582.0000
566.0000
573.0000
560.0000
576.0000
587.0000
603.0000
608.0000
630.0000
603.0000
627.0000
620.0000
674.0000
654.0000
646.0000
679.0000
698.0000
669.0000
677.0000
698.0000
674.0000
712.0000
724.0000
701.0000
748.0000
754.0000
801.0000
766.0000
792.0000
785.0000
827.0000
860.0000
891.0000
952.0000
962.0000
986.0000
1052
1072
1193
1145
1172
1237
1217
1313
1384
1345
1315
1413
1387
1359
1397
1402
1337
1256
1237
1193
1093
1008
982.0000
876.0000
772.0000
753.0000
631.0000
564.0000
500.0000
486.0000
424.0000
385.0000
368.0000
365.0000
335.0000
358.0000
346.0000
292.0000
287.0000
295.0000
301.0000
265.0000
268.0000
288.0000
275.0000
266.0000
260.0000
229.0000
261.0000
270.0000
229.0000
240.0000
237.0000
266.0000
252.0000
244.0000
277.0000
243.0000
215.0000
265.0000
254.0000
286.0000
245.0000
247.0000

Full

Fe2p3
1
95.0000
-0.1000
200
899.0000
930.0000
950.0000
900.0000
869.0000
941.0000
888.0000
888.0000
859.0000
919.0000
893.0000
921.0000
933.0000
924.0000
940.0000
907.0000
888.0000
905.0000
864.0000
838.0000
844.0000
903.0000
946.0000
881.0000
873.0000
889.0000
857.0000
795.0000
889.0000
836.0000
840.0000
856.0000
848.0000
916.0000
802.0000
859.0000
873.0000
874.0000
864.0000
861.0000
889.0000
882.0000
884.0000
838.0000
872.0000
863.0000
856.0000
886.0000
906.0000
913.0000
889.0000
886.0000
944.0000
946.0000
890.0000
956.0000
899.0000
976.0000
980.0000
1027
1006
1015
964.0000
1055
967.0000
1008
1104
1067
1037
1088
1101
1050
1070
1091
1098
1070
1029
1105
1069
1022
1048
1032
1090
1043
1076
1082
1050
1114
1050
1057
1103
1049
1064
1116
1099
1061
1056
1064
1016
1045
1062
1041
1054
1016
1053
1069
1125
1001
1082
1020
1118
1204
1092
1135
1157
1197
1202
1209
1209
1139
1282
1193
1209
1174
1185
1133
1130
1126
1129
1060
1080
1063
992.0000
952.0000
901.0000
930.0000
896.0000
830.0000
830.0000
838.0000
794.0000
865.0000
782.0000
831.0000
732.0000
791.0000
782.0000
740.0000
793.0000
733.0000
713.0000
716.0000
751.0000
699.0000
729.0000
690.0000
725.0000
733.0000
740.0000
745.0000
713.0000
677.0000
711.0000
676.0000
680.0000
754.0000
711.0000
653.0000
729.0000
643.0000
670.0000
730.0000
674.0000
684.0000
650.0000
693.0000
646.0000
689.0000
686.0000
689.0000
727.0000
708.0000
700.0000
678.0000
643.0000
696.0000
651.0000
703.0000
688.0000
690.0000
665.0000
665.0000
679.0000
687.0000
697.0000
685.0000
676.0000
671.0000
704.0000
714.0000