File: assets/data/P03/xps/7B0302_2.asc
Full

C1s
1
290.0000
-0.1000
150
1161
1171
1124
1242
1288
1184
1149
1231
1233
1135
1221
1202
1172
1158
1138
1142
1135
1074
1084
1088
1114
1043
1078
1051
1090
1088
1050
1054
1002
1018
1104
1057
1063
995.0000
1022
1043
998.0000
1022
993.0000
972.0000
1003
985.0000
986.0000
966.0000
991.0000
1001
956.0000
970.0000
938.0000
888.0000
920.0000
870.0000
893.0000
969.0000
914.0000
947.0000
965.0000
948.0000
914.0000
963.0000
944.0000
1023
955.0000
1013
1086
1100
1093
1113
1255
1314
1338
1356
1482
1523
1525
1576
1593
1515
1581
1501
1512
1572
1546
1451
1451
1485
1406
1414
1355
1318
1334
1414
1398
1424
1545
1533
1719
1716
2004
2098
2381
2560
2906
3345
3943
4625
5276
6241
7080
8302
9253
10390
11552
12318
12970
12996
12899
12470
11483
10263
8648
7092
5779
4539
3517
2729
2155
1831
1487
1309
1201
1125
1039
1039
989.0000
930.0000
925.0000
887.0000
902.0000
915.0000
871.0000
881.0000
885.0000
852.0000
902.0000
868.0000
877.0000
857.0000
863.0000
858.0000

Full

O1s
1
535.0000
-0.1000
150
1746
1682
1761
1643
1698
1656
1728
1727
1600
1677
1633
1670
1559
1618
1558
1657
1573
1624
1559
1579
1524
1626
1592
1553
1637
1561
1545
1534
1543
1531
1443
1526
1544
1522
1499
1510
1499
1516
1548
1517
1536
1534
1517
1576
1502
1533
1490
1510
1552
1499
1531
1541
1541
1551
1462
1507
1490
1543
1540
1548
1599
1552
1620
1621
1673
1588
1660
1665
1749
1813
1974
1960
2116
2086
2222
2326
2345
2402
2434
2613
2746
2753
2985
3080
3256
3436
3676
3880
3988
4291
4347
4554
4507
4570
4546
4529
4543
4438
4385
4109
3994
3934
3819
3658
3592
3471
3417
3307
3323
3436
3488
3813
4229
4686
5192
5776
6518
6989
7255
7432
7295
6688
6035
5262
4489
3712
3160
2540
2088
1874
1692
1500
1504
1311
1355
1322
1271
1225
1271
1336
1292
1217
1230
1286
1205
1227
1190
1234
1215
1193

Full

Fe2p
1
-0.1000
4342
4332.67
4329
4307.67
4195.33
4352
4203.33
4296
4204
4256.33
4258
4214
4111
4165.33
4234.33
4131.67
4127.33
4086.67
4145
4236.33
4153.67
4135.67
4123.33
4167.67
4136.33
4108.33
4150.33
4156.33
4170.67
4176.67
4271
4195.33
4144.67
4194
4139.67
4145.33
4197.33
4189.67
4229.33
4175
4307
4193.33
4213.33
4187.33
4162
4190.67
4156
4167
4210
4151
4109.33
4068.67
4088.33
4102.33
4019
4028.67
4075
4080
4012
4018.33
4019.67
3993.67
3956.33
3969.33
4016.67
4034
4017
4006.67
4059.67
4044
4024.67
4108
4039.33
4139.33
4178.33
4207
4269.67
4244
4241.67
4263.67
4457
4374.67
4364
4391.67
4415.33
4385
4468
4500
4437.33
4428
4291.67
4329.67
4228.33
4166
4125.33
4026
3885.67
3724
3678.33
3593.67
3602.33
3606
3615.33
3600.67
3621.67
3535.67
3583
3585
3580.67
3583
3611
3615
3595
3599.33
3661
3567
3561.33
3483.33
3530.67
3450
3460
3417.67
3402
3424.67
3382
3336.33
3403.33
3340.33
3352.33
3345.33
3302.67
3311.33
3398
3378.67
3405.33
3465.67
3493
3551.67
3552.33
3635
3763
3802.33
3791
3871
3925
4033
4074.33
4180.67
4234.33
4251
4394.67
4628
4568
4656.67
4631.33
4609.67
4623
4474.33
4418
4341
4172.67
3979.67
3475
3042.33
2707.67
2523.33
2440.33
2375.67
2279.67
2318.33
2297.33
2283.67
2304.33
2288
2303.33
2268.33
2252.67
2253
2275.67
2262.67
2241
2264.67
2280.67
2230.67
2254.67
2266.67
2220
2271
2233.33
2257.33
2201
2281.67
2272.33
2243.33
2201.33
2189.33
2243
2219.67
2225
2191
2248.33

Full

Zn2p3
1
-0.1000
7065
7051
6994
7043
7031
7092
6964
7019
7073
7056
7085
7013
7069
7124
6943
7099
7136
7027
7101
7135
7116
7150
7194
7141
7214
6932
7114
6964
6960
7012
7022
7057
7002
7020
7115
6993
7104
7009
7165
7048
7070
7051
7298
7114
7097
7221
7297
7294
7225
7420
7346
7497
7587
7868
7880
7914
7714
7929
7614
7576
7724
7587
7570
7341
7396
7175
7212
7164
7099
7162
7123
7238
6983
7065
7157
7095
7152
7179
7239
7173
7142
7154
7189
7167
7122
7295
7125
7075
7268
7181
7264
7096
7142
7043
7072
7141
7094
7162
7113
7049
7193
7172
7216
7124
7147
7178
7144
7147
7158
6940
7044
7028
7241
7178
7134
7198
7103
7040
7036
7178
7189
6946
7171
6916
7189
7167
7230
7109
7037
7055
7016
7216
7018
7028
7112
7107
7187
7074
6983
7014
7038
7152
6938
7065
7141
6989
7195
7085
6992
7093
7033
7071
7134
7077
7172
7082
7166
7090
7172
7224
7283
7169
7284
7559
7715
7687
7900
8024
8259
8449
8468
8570
8682
8511
8303
8306
7946
7731
7608
7474
7614
7365
7180
7263
7123
7283
7202
7141
7081
7129
7208
7117
7224
7232
7136
7070
7070
7172
7091
7128
7241
7085
7237
7184
7150
7312
7119
7019
7154
7039
7048
7163
7204
7259
7023
7167
7319
7151
7246
7133
7172
7126
7058
7086
7060
7066

Full

Ag3d
1
375.0000
-0.1000
200
1220
1184
1098
1200
1316
1192
1262
1162
1166
1152
1140
1146
1176
1168
1098
1170
1212
1112
1194
1176
1094
1252
1112
1162
1224
1210
1162
1226
1236
1188
1196
1260
1114
1260
1248
1120
1136
1128
1244
1210
1134
1188
1112
1166
1162
1228
1170
1178
1202
1180
1128
1124
1182
1272
1190
1192
1238
1256
1264
1234
1222
1188
1332
1398
1416
1444
1596
1736
1926
1964
1982
2180
2308
2274
2190
2150
1984
1822
1664
1504
1496
1440
1294
1310
1156
1234
1194
1242
1298
1182
1184
1138
1174
1086
1160
1182
1220
1170
1220
1234
1088
1146
1056
1188
1070
1160
1200
1188
1130
1268
1124
1256
1202
1188
1146
1252
1244
1212
1194
1200
1300
1214
1222
1496
1490
1664
1790
1846
1962
2280
2538
2704
2752
2774
2644
2554
2346
2118
1816
1680
1510
1398
1304
1352
1370
1350
1244
1242
1128
1186
1264
1228
1248
1228
1212
1226
1220
1136
1262
1224
1204
1228
1216
1208
1240
1182
1226
1178
1214
1078
1190
1154
1122
1124
1266
1156
1126
1164
1154
1196
1146
1144
1222
1234
1176
1254
1116
1198
1132
1148
1200
1124
1122
1204
1118
1180
1132
1192
1218
1194

Full

Sn3d5
1
-0.1000
1116
1144
1140
1121
1220
1124
1151
1129
1112
1174
1103
1179
1159
1099
1097
1151
1135
1130
1146
1138
1204
1149
1155
1221
1138
1194
1198
1200
1133
1167
1127
1118
1049
1180
1195
1166
1117
1109
1129
1186
1136
1219
1147
1205
1104
1157
1230
1150
1148
1108
1174
1224
1107
1176
1188
1148
1170
1120
1241
1177
1150
1095
1121
1153
1167
1166
1203
1220
1171
1152
1196
1212
1174
1185
1234
1227
1269
1337
1325
1344
1323
1376
1362
1363
1319
1327
1340
1301
1328
1390
1355
1442
1388
1385
1406
1334
1267
1367
1236
1347
1248
1247
1231
1247
1185
1180
1126
1215
1191
1188
1199
1081
1069
1120
1146
1079
1089
1065
1078
1056
1031
1070
1060
1025
1022
1072
1056
1065
1091
1108
1054
1035
1051
1045
1022
1135
1015
1068
1081
1105
1035
1045
1076
1011
1097
1024
1107
1101
1074
1065
1069

Full

Si2p
1
110.0000
-0.1000
200
891.4286
841.4286
814.2857
874.2857
865.7143
917.1429
888.5715
840.0000
811.4286
821.4286
918.5715
857.1429
820.0000
834.2857
851.4286
830.0000
865.7143
827.1429
822.8572
815.7143
834.2857
850.0000
832.8572
860.0000
901.4286
801.4286
834.2857
764.2857
831.4286
881.4286
884.2857
860.0000
818.5715
847.1429
845.7143
861.4286
830.0000
885.7143
817.1429
804.2857
834.2857
847.1429
850.0000
815.7143
770.0000
875.7143
772.8572
808.5715
758.5714
782.8572
872.8572
791.4286
842.8572
845.7143
812.8572
760.0000
821.4286
837.1429
792.8572
888.5715
821.4286
764.2857
825.7143
811.4286
791.4286
771.4286
862.8572
790.0000
841.4286
751.4286
828.5715
858.5715
892.8572
851.4286
790.0000
772.8572
771.4286
805.7143
838.5715
857.1429
850.0000
815.7143
818.5715
908.5715
824.2857
798.5715
844.2857
834.2857
825.7143
812.8572
821.4286
808.5715
800.0000
837.1429
828.5715
878.5715
818.5715
808.5715
810.0000
792.8572
827.1429
865.7143
835.7143
854.2857
817.1429
817.1429
797.1429
804.2857
832.8572
820.0000
750.0000
807.1429
814.2857
861.4286
800.0000
798.5715
802.8572
815.7143
811.4286
781.4286
820.0000
822.8572
752.8572
825.7143
790.0000
812.8572
778.5715
837.1429
751.4286
864.2857
801.4286
870.0000
912.8572
901.4286
850.0000
912.8572
918.5715
880.0000
910.0000
927.1429
934.2857
865.7143
930.0000
902.8572
950.0000
941.4286
872.8572
911.4286
845.7143
847.1429
844.2857
880.0000
862.8572
852.8572
794.2857
781.4286
894.2857
855.7143
827.1429
870.0000
905.7143
870.0000
821.4286
847.1429
864.2857
837.1429
888.5715
884.2857
848.5715
942.8572
865.7143
857.1429
830.0000
865.7143
860.0000
805.7143
871.4286
851.4286
867.1429
807.1429
817.1429
901.4286
805.7143
825.7143
871.4286
758.5714
837.1429
798.5715
821.4286
830.0000
835.7143
878.5715
842.8572
807.1429
794.2857
834.2857
795.7143
817.1429
807.1429
860.0000

Full

Fe3p
1
65.0000
-0.2500
81
1752
1776
1764
1704
1815
1772
1740
1714
1715
1724
1704
1761
1721
1710
1671
1642
1655
1688
1641
1715
1773
1750
1803
1753
1777
1799
1719
1840
1813
1803
1810
1882
1794
1818
1769
1848
1727
1791
1640
1725
1691
1639
1747
1714
1703
1703
1782
1825
1895
1875
1946
2045
2135
2163
2381
2350
2547
2772
2874
3030
3219
3367
3614
3797
3714
3549
3302
2864
2436
2000
1456
1316
1069
960.0000
869.0000
895.0000
847.0000
882.0000
797.0000
846.0000
791.0000